time [sec],V [mV],I [mA]
0.0,3147.681,5.073
0.04,3150.853,-311.9
0.06,3155.8,-791.869
0.08,3160.672,-1234.197
0.1,3164.445,-1547.772
0.13,3167.704,-1777.752
0.34,3170.774,-1746.779
0.9,3173.818,-1749.45
1.7,3176.854,-1749.675
2.47,3179.898,-1749.853
3.33,3182.903,-1749.413
4.48,3185.927,-1750.111
5.42,3188.957,-1749.838
6.54,3192.057,-1749.534
7.67,3195.067,-1749.943
8.73,3198.103,-1749.793
9.75,3201.148,-1749.675
11.26,3204.248,-1750.133
12.5,3207.27,-1750.395
13.63,3210.367,-1749.68
15.02,3213.381,-1750.051
16.4,3216.403,-1749.932
17.67,3219.415,-1749.849
19.07,3222.425,-1749.602
20.51,3225.518,-1749.771
21.92,3228.523,-1749.587
23.25,3231.543,-1749.525
24.76,3234.593,-1749.671
26.23,3237.594,-1749.803
27.74,3240.607,-1749.791
29.17,3243.611,-1749.413
30.81,3246.655,-1749.22
32.45,3249.711,-1749.417
34.01,3252.771,-1750.188
35.69,3255.771,-1749.852
37.06,3258.841,-1750.095
38.89,3261.885,-1749.646
40.66,3264.948,-1750.039
42.44,3267.956,-1749.844
44.09,3270.983,-1749.89
45.91,3274.004,-1749.407
47.68,3277.087,-1749.874
49.69,3280.122,-1749.477
51.5,3283.195,-1749.733
53.31,3286.227,-1749.796
55.27,3289.295,-1749.474
56.99,3292.347,-1749.514
59.25,3295.358,-1749.544
60.99,3298.363,-1749.995
63.09,3301.374,-1749.687
65.11,3304.374,-1749.858
67.1,3307.394,-1749.606
69.16,3310.405,-1749.85
71.43,3313.433,-1749.803
73.4,3316.477,-1749.521
75.66,3319.534,-1749.783
77.99,3322.548,-1749.716
80.21,3325.562,-1749.854
82.17,3328.628,-1749.616
84.75,3331.685,-1750.282
86.92,3334.689,-1749.563
89.34,3337.769,-1749.897
91.64,3340.827,-1749.94
94.04,3343.835,-1749.783
96.45,3346.839,-1749.904
98.88,3349.847,-1749.963
101.44,3352.855,-1749.806
103.7,3355.89,-1749.66
106.34,3358.924,-1749.79
109.25,3361.96,-1750.066
111.51,3364.965,-1749.358
114.15,3368.01,-1749.939
117.03,3371.043,-1749.563
119.61,3374.096,-1749.737
122.27,3377.123,-1750.022
124.86,3380.143,-1749.83
127.97,3383.158,-1749.805
130.84,3386.176,-1749.333
133.62,3389.217,-1749.918
136.31,3392.237,-1749.644
139.38,3395.27,-1749.725
142.29,3398.273,-1749.663
145.04,3401.298,-1749.377
148.05,3404.315,-1750.112
151.06,3407.37,-1749.818
154.58,3410.408,-1749.566
157.68,3413.456,-1749.776
160.7,3416.499,-1749.763
164.15,3419.504,-1749.986
167.26,3422.529,-1749.652
170.34,3425.55,-1749.741
173.73,3428.596,-1749.774
177.06,3431.65,-1749.563
180.66,3434.721,-1749.753
183.89,3437.735,-1749.674
187.46,3440.752,-1749.684
191.14,3443.774,-1749.711
194.53,3446.795,-1749.829
198.18,3449.852,-1749.579
201.57,3452.909,-1749.816
205.19,3455.923,-1750.063
208.97,3458.93,-1749.424
212.59,3461.93,-1750.13
216.23,3464.942,-1749.436
219.97,3468.005,-1749.789
224.16,3471.056,-1750.038
227.75,3474.071,-1749.602
231.55,3477.151,-1749.813
235.9,3480.201,-1749.727
239.96,3483.224,-1749.738
243.97,3486.28,-1749.516
247.85,3489.292,-1749.524
252.11,3492.32,-1749.81
256.4,3495.349,-1749.627
260.19,3498.36,-1749.442
264.58,3501.385,-1749.898
269.2,3504.414,-1749.673
272.91,3507.46,-1749.463
277.51,3510.491,-1750.38
282.07,3513.511,-1749.839
286.42,3516.543,-1749.994
291.01,3519.544,-1749.384
295.28,3522.579,-1749.52
299.59,3525.589,-1749.429
304.29,3528.598,-1749.539
308.79,3531.628,-1750.01
313.69,3534.647,-1749.368
318.53,3537.667,-1749.786
323.16,3540.669,-1749.393
327.83,3543.694,-1749.826
332.63,3546.715,-1749.709
337.87,3549.721,-1749.847
342.9,3552.739,-1750.054
347.56,3555.751,-1749.718
352.61,3558.761,-1749.809
357.54,3561.774,-1749.531
362.62,3564.821,-1749.849
368.03,3567.837,-1749.685
373.05,3570.853,-1749.619
378.58,3573.881,-1749.217
383.82,3576.941,-1749.922
389.35,3580.018,-1749.694
394.75,3583.034,-1749.861
400.43,3586.094,-1749.654
406.14,3589.098,-1749.673
411.24,3592.124,-1749.785
417.17,3595.148,-1749.844
422.04,3598.221,-1749.543
428.27,3601.29,-1749.908
434.4,3604.32,-1749.623
440.6,3607.426,-1749.794
447.05,3610.479,-1749.501
453.03,3613.495,-1749.815
459.47,3616.523,-1749.659
465.73,3619.543,-1749.659
472.32,3622.544,-1749.777
479.06,3625.558,-1750.001
485.08,3628.564,-1749.426
492.82,3631.59,-1749.59
499.93,3634.604,-1749.757
507.26,3637.64,-1749.654
514.36,3640.692,-1750.08
522.53,3643.726,-1749.646
531.03,3646.785,-1749.847
539.95,3649.824,-1749.433
548.53,3652.864,-1749.811
556.75,3655.869,-1749.873
565.78,3658.929,-1749.768
574.26,3661.933,-1749.741
584.63,3664.971,-1749.489
593.73,3667.979,-1749.579
603.12,3670.998,-1749.759
614.15,3674.006,-1750.031
623.71,3677.016,-1749.733
635.11,3680.041,-1749.842
646.21,3683.107,-1749.504
656.42,3686.138,-1749.634
668.27,3689.167,-1749.752
679.81,3692.209,-1749.582
691.23,3695.216,-1749.501
703.49,3698.234,-1749.704
716.2,3701.247,-1749.549
728.31,3704.306,-1749.336
742.88,3707.32,-1749.35
755.96,3710.338,-1749.567
769.09,3713.352,-1749.289
785.08,3716.353,-1749.729
799.16,3719.357,-1750.136
814.75,3722.374,-1749.936
829.49,3725.374,-1749.412
847.88,3728.385,-1749.958
865.0,3731.437,-1749.799
882.38,3734.437,-1750.113
902.43,3737.441,-1749.836
921.77,3740.473,-1749.684
942.9,3743.474,-1749.923
965.51,3746.525,-1749.81
987.47,3749.589,-1749.719
1013.02,3752.605,-1749.706
1036.72,3755.649,-1750.047
1061.4,3758.662,-1749.749
1090.55,3761.708,-1749.728
1118.52,3764.731,-1749.89
1146.55,3767.746,-1749.739
1176.69,3770.812,-1749.604
1207.05,3773.83,-1749.313
1235.53,3776.831,-1749.924
1270.8,3779.891,-1749.474
1300.7,3782.95,-1749.69
1335.16,3786.003,-1749.549
1367.46,3789.05,-1749.732
1403.23,3792.077,-1749.724
1437.27,3795.078,-1749.62
1467.53,3798.08,-1750.017
1503.58,3801.12,-1749.471
1537.0,3804.162,-1749.703
1570.11,3807.189,-1749.757
1603.46,3810.222,-1749.482
1635.31,3813.245,-1749.649
1670.54,3816.246,-1749.474
1704.29,3819.269,-1749.933
1737.37,3822.273,-1749.608
1774.61,3825.295,-1749.781
1808.74,3828.314,-1749.513
1843.01,3831.347,-1749.599
1878.59,3834.351,-1749.442
1911.62,3837.358,-1749.67
1947.63,3840.397,-1749.789
1986.28,3843.431,-1749.81
2021.72,3846.56,-1749.827
2059.39,3849.569,-1749.747
2096.4,3852.603,-1749.337
2132.41,3855.609,-1749.527
2172.33,3858.616,-1749.512
2212.08,3861.666,-1749.601
2250.12,3864.72,-1749.856
2293.32,3867.74,-1749.708
2331.76,3870.78,-1749.854
2372.62,3873.826,-1750.023
2419.12,3876.899,-1749.811
2465.04,3879.904,-1750.141
2508.59,3882.932,-1749.837
2558.12,3886.005,-1749.446
2608.5,3889.021,-1749.597
2666.28,3892.046,-1749.657
2717.86,3895.092,-1749.527
2777.86,3897.52,-1749.731
2832.21,3900.546,-1749.595
2892.21,3902.765,-1749.946
2947.59,3905.817,-1749.767
3007.59,3908.013,-1749.682
3067.59,3910.297,-1749.586
3127.59,3912.671,-1749.79
3187.59,3914.833,-1750.031
3247.59,3917.056,-1749.754
3307.59,3919.417,-1749.54
3367.59,3921.621,-1749.127
3427.59,3923.52,-1749.287
3487.59,3925.729,-1749.551
3547.59,3927.741,-1749.82
3607.59,3930.258,-1749.327
3667.59,3932.462,-1749.533
3727.59,3934.819,-1749.76
3787.59,3937.097,-1749.405
3847.59,3939.393,-1749.648
3907.59,3941.742,-1749.849
3967.59,3944.244,-1749.822
4027.59,3946.677,-1749.994
4087.59,3949.397,-1750.181
4147.59,3951.702,-1750.045
4199.91,3954.707,-1750.094
4259.91,3957.201,-1749.458
4314.86,3960.236,-1749.998
4369.59,3963.24,-1749.537
4425.79,3966.249,-1749.751
4476.65,3969.252,-1749.915
4528.33,3972.282,-1749.471
4581.46,3975.324,-1749.703
4626.34,3978.383,-1749.364
4674.21,3981.387,-1749.732
4720.7,3984.408,-1749.723
4762.5,3987.418,-1749.76
4806.66,3990.433,-1749.894
4848.06,3993.451,-1749.787
4886.0,3996.461,-1749.857
4927.36,3999.546,-1750.338
4966.29,4002.564,-1749.747
5005.29,4005.596,-1749.657
5048.95,4008.608,-1749.677
5086.55,4011.651,-1749.728
5124.84,4014.68,-1749.691
5162.43,4017.781,-1749.943
5202.81,4020.792,-1749.747
5240.26,4023.821,-1749.65
5284.22,4026.842,-1749.598
5325.9,4029.854,-1749.609
5368.56,4032.885,-1749.843
5412.62,4035.895,-1749.64
5459.9,4038.898,-1749.787
5507.02,4041.934,-1749.574
5559.87,4044.966,-1749.947
5609.36,4048.045,-1749.723
5669.36,4050.904,-1749.793
5725.31,4053.914,-1749.692
5785.31,4056.203,-1749.645
5845.31,4059.219,-1749.845
5905.31,4061.339,-1749.766
5965.31,4063.927,-1750.117
6025.31,4066.459,-1749.515
6085.31,4068.371,-1749.819
6145.31,4070.635,-1749.756
6205.31,4072.712,-1749.758
6265.31,4074.67,-1749.607
6325.31,4077.078,-1749.345
6385.31,4078.853,-1749.826
6445.31,4080.832,-1749.851
6505.31,4082.762,-1749.879
6565.31,4084.631,-1749.577
6625.31,4086.032,-1749.366
6685.31,4087.606,-1749.571
6745.31,4089.771,-1749.887
6805.31,4091.357,-1749.564
6865.31,4092.942,-1750.023
6925.31,4094.932,-1750.002
6985.31,4096.161,-1749.861
7045.31,4098.019,-1749.822
7105.31,4099.493,-1750.138
7165.31,4101.347,-1749.726
7225.31,4102.806,-1749.617
7285.31,4104.518,-1749.542
7345.31,4105.958,-1749.804
7405.31,4107.626,-1750.017
7465.31,4109.138,-1749.7
7525.31,4111.11,-1749.551
7585.31,4112.832,-1749.68
7645.31,4114.708,-1749.702
7705.31,4116.374,-1749.756
7765.31,4117.836,-1749.846
7825.31,4120.077,-1749.977
7885.31,4121.844,-1749.531
7945.31,4123.798,-1749.532
8005.31,4125.882,-1749.868
8065.31,4127.742,-1749.589
8125.31,4129.781,-1749.951
8185.31,4132.159,-1749.519
8245.31,4134.247,-1749.808
8305.31,4136.317,-1749.59
8365.01,4139.371,-1749.775
8425.01,4141.569,-1749.762
8485.01,4143.897,-1749.758
8538.82,4146.953,-1749.895
8598.82,4149.57,-1749.871
8652.97,4152.571,-1749.715
8712.31,4155.583,-1749.491
8769.25,4158.588,-1749.703
8819.78,4161.605,-1749.184
8870.6,4164.624,-1749.606
8912.97,4167.662,-1749.755
8957.82,4170.665,-1750.198
8999.66,4173.668,-1749.913
9041.43,4176.694,-1749.427
9079.68,4179.775,-1749.673
9115.97,4182.786,-1749.17
9148.14,4185.789,-1749.73
9184.85,4188.822,-1749.482
9217.0,4191.885,-1749.599
9245.55,4194.886,-1749.754
9273.46,4197.944,-1749.369
9286.5,4198.928,-1750.322
9286.51,4198.756,-1717.911
9286.54,4194.291,-1156.201
9286.56,4190.163,-675.015
9286.58,4186.711,-302.379
9286.61,4183.709,-0.406
9287.32,4180.682,4.987
9289.31,4177.65,5.374
9293.62,4174.64,4.679
9299.02,4171.585,4.896
9306.32,4168.578,4.784
9314.96,4165.568,4.698
9329.01,4162.53,5.441
9345.83,4159.493,5.157
9369.38,4156.49,5.522
9400.8,4153.435,5.533
9443.22,4150.408,4.657
9503.22,4148.612,5.179
9563.22,4146.973,5.371
9623.22,4145.616,5.077
9683.22,4144.756,5.428
9743.22,4143.436,5.286
9803.22,4142.751,5.268
9863.22,4142.43,5.199
9886.5,4142.177,5.659
9886.51,4142.112,5.515
9886.56,4137.434,597.686
9886.58,4133.362,1070.221
9886.6,4129.919,1438.016
9886.63,4126.795,1737.772
9887.7,4123.787,1749.196
9890.68,4120.759,1749.494
9895.41,4117.754,1749.635
9902.86,4114.655,1750.33
9911.17,4111.647,1749.407
9921.5,4108.573,1748.911
9933.94,4105.534,1749.455
9947.47,4102.498,1749.316
9964.38,4099.494,1749.976
9982.57,4096.493,1749.069
10006.36,4093.45,1749.458
10031.02,4090.421,1750.226
10059.29,4087.42,1749.244
10090.28,4084.392,1749.913
10123.35,4081.383,1749.807
10158.2,4078.338,1749.294
10198.93,4075.306,1749.43
10233.77,4072.302,1749.255
10284.22,4069.282,1749.354
10330.92,4066.25,1749.201
10383.13,4063.169,1749.592
10439.35,4060.136,1749.792
10487.97,4057.113,1749.685
10541.93,4054.095,1749.665
10599.6,4051.079,1749.553
10658.82,4048.065,1749.516
10718.82,4045.755,1749.721
10775.61,4042.721,1749.298
10835.61,4040.27,1749.553
10895.61,4037.39,1748.904
10955.61,4035.219,1749.602
11011.25,4032.2,1749.737
11071.25,4029.905,1749.712
11131.25,4027.628,1749.781
11191.25,4025.251,1749.384
11251.25,4022.567,1749.909
11311.25,4020.299,1749.042
11371.25,4017.883,1749.671
11431.25,4015.441,1749.413
11491.25,4013.063,1749.527
11551.25,4010.656,1749.625
11611.25,4008.327,1749.354
11671.25,4005.979,1750.698
11731.25,4003.766,1749.663
11788.63,4000.763,1749.268
11848.63,3998.829,1750.157
11905.92,3995.792,1749.712
11965.92,3993.119,1750.17
12025.92,3990.966,1749.283
12081.72,3987.941,1749.524
12141.72,3985.417,1749.563
12201.72,3982.933,1749.781
12257.33,3979.927,1749.295
12317.33,3978.186,1749.7
12367.43,3975.137,1749.564
12427.43,3973.583,1749.609
12487.43,3971.549,1749.311
12547.43,3969.848,1750.092
12607.43,3967.248,1749.95
12667.43,3965.223,1750.012
12727.43,3963.408,1749.564
12787.43,3961.701,1749.331
12847.43,3959.942,1749.664
12907.43,3957.942,1749.771
12967.43,3955.83,1749.679
13027.43,3954.151,1749.064
13087.43,3951.567,1749.579
13147.43,3949.353,1749.548
13207.43,3947.031,1749.478
13267.43,3944.085,1749.675
13327.43,3941.985,1749.716
13387.43,3939.417,1749.533
13442.85,3936.383,1749.949
13502.85,3934.196,1749.546
13543.95,3931.178,1749.334
13601.27,3928.173,1749.684
13651.88,3925.142,1749.516
13703.69,3922.137,1749.84
13753.06,3919.133,1749.562
13801.73,3916.109,1749.552
13849.9,3913.062,1749.532
13894.94,3910.028,1749.265
13942.23,3906.956,1749.685
13984.13,3903.833,1749.158
14031.88,3900.829,1749.315
14074.62,3897.82,1749.701
14118.32,3894.762,1749.319
14159.86,3891.758,1749.813
14207.28,3888.726,1748.774
14247.88,3885.72,1749.695
14292.71,3882.699,1749.59
14338.75,3879.67,1749.758
14383.8,3876.664,1749.543
14428.3,3873.625,1749.46
14477.19,3870.621,1749.3
14527.84,3867.615,1749.683
14577.1,3864.595,1749.289
14629.65,3861.595,1749.829
14684.79,3858.584,1749.66
14743.59,3855.558,1749.335
14802.64,3852.539,1749.894
14862.64,3849.8,1749.465
14919.91,3846.76,1749.439
14979.91,3844.537,1749.642
15039.91,3841.782,1749.881
15099.91,3839.447,1749.783
15159.91,3836.862,1749.809
15219.91,3834.472,1749.679
15279.91,3831.949,1749.738
15339.91,3829.811,1749.582
15399.91,3827.518,1749.631
15459.91,3825.01,1749.799
15519.91,3822.745,1749.777
15579.91,3820.595,1749.552
15639.91,3817.933,1749.537
15699.91,3816.264,1749.537
15755.17,3813.23,1749.108
15815.17,3811.25,1749.643
15875.17,3808.827,1749.231
15935.17,3806.581,1749.52
15995.17,3803.916,1749.44
16055.17,3801.438,1749.279
16115.17,3798.669,1749.653
16175.17,3796.434,1749.495
16230.34,3793.392,1749.798
16290.34,3790.962,1749.745
16350.34,3788.229,1749.454
16405.08,3785.223,1749.429
16465.08,3782.862,1749.741
16518.7,3779.855,1749.446
16576.27,3776.81,1750.126
16633.59,3773.789,1749.646
16690.82,3770.767,1749.751
16745.22,3767.747,1749.395
16798.26,3764.747,1749.717
16848.41,3761.71,1749.363
16902.37,3758.708,1749.687
16950.22,3755.688,1749.306
16995.65,3752.642,1749.562
17045.41,3749.636,1749.782
17087.73,3746.633,1749.682
17133.81,3743.63,1749.615
17175.93,3740.607,1749.593
17218.51,3737.597,1749.673
17261.51,3734.575,1749.714
17303.06,3731.569,1749.62
17343.51,3728.557,1749.543
17382.62,3725.548,1749.768
17421.29,3722.506,1749.077
17459.1,3719.472,1749.82
17499.53,3716.45,1749.268
17537.7,3713.441,1749.277
17574.07,3710.383,1749.765
17611.8,3707.372,1749.681
17649.47,3704.344,1749.739
17687.31,3701.329,1749.373
17720.1,3698.29,1749.638
17754.87,3695.257,1749.591
17790.49,3692.196,1749.262
17824.57,3689.192,1749.964
17858.03,3686.162,1749.664
17891.07,3683.124,1750.213
17921.77,3680.119,1749.572
17954.8,3677.011,1749.774
17985.66,3674.008,1749.35
18016.05,3671.006,1749.34
18044.79,3667.986,1749.672
18073.13,3664.914,1749.414
18103.31,3661.903,1749.499
18125.08,3658.843,1749.6
18154.16,3655.822,1749.327
18177.97,3652.815,1749.5
18199.81,3649.777,1749.251
18221.9,3646.702,1749.573
18244.6,3643.656,1749.543
18264.8,3640.625,1749.733
18284.49,3637.573,1749.862
18303.74,3634.531,1749.79
18320.95,3631.508,1749.425
18337.29,3628.451,1749.185
18353.17,3625.445,1749.377
18368.79,3622.438,1749.796
18385.24,3619.431,1749.786
18399.25,3616.366,1749.635
18413.23,3613.346,1749.331
18426.38,3610.346,1749.306
18439.86,3607.344,1749.663
18452.02,3604.335,1749.682
18463.82,3601.237,1749.826
18475.16,3598.224,1749.578
18487.44,3595.223,1749.737
18498.38,3592.166,1749.663
18509.32,3589.157,1749.745
18520.18,3586.157,1749.531
18530.18,3583.14,1749.576
18540.83,3580.103,1749.813
18550.55,3577.064,1749.681
18560.52,3574.013,1749.495
18569.82,3570.982,1749.432
18580.02,3567.932,1749.836
18588.08,3564.917,1749.369
18598.43,3561.901,1749.955
18606.98,3558.874,1749.374
18616.22,3555.872,1749.629
18624.53,3552.862,1749.748
18633.28,3549.835,1749.432
18642.55,3546.82,1749.716
18650.05,3543.797,1749.527
18658.02,3540.781,1749.709
18666.53,3537.747,1749.556
18674.2,3534.726,1749.343
18682.43,3531.717,1749.318
18689.81,3528.682,1749.601
18697.75,3525.663,1749.788
18705.18,3522.634,1749.575
18712.88,3519.625,1749.525
18719.87,3516.577,1749.408
18727.19,3513.567,1749.745
18734.39,3510.534,1749.627
18741.57,3507.517,1749.771
18748.21,3504.491,1749.566
18755.03,3501.482,1749.563
18762.42,3498.481,1749.772
18768.43,3495.452,1749.415
18774.28,3492.429,1749.286
18781.31,3489.42,1749.621
18787.51,3486.413,1749.486
18793.79,3483.4,1749.704
18800.27,3480.399,1749.413
18805.71,3477.39,1749.568
18812.2,3474.376,1749.804
18817.65,3471.355,1749.687
18823.21,3468.351,1749.451
18829.27,3465.341,1749.644
18834.7,3462.339,1749.536
18840.05,3459.281,1749.586
18845.23,3456.266,1749.69
18850.43,3453.243,1749.661
18856.28,3450.204,1750.025
18861.31,3447.121,1749.472
18866.11,3444.115,1749.483
18871.51,3441.11,1749.582
18876.48,3438.067,1749.319
18880.98,3435.045,1749.556
18885.93,3432.035,1749.652
18890.69,3429.007,1749.429
18895.68,3425.997,1749.66
18900.13,3422.966,1749.292
18904.7,3419.952,1749.35
18909.69,3416.929,1749.418
18913.89,3413.925,1750.189
18918.31,3410.877,1749.797
18923.04,3407.877,1749.632
18926.84,3404.815,1749.578
18931.68,3401.804,1749.658
18936.14,3398.794,1749.854
18939.96,3395.762,1749.527
18944.25,3392.742,1749.522
18948.53,3389.648,1749.57
18952.95,3386.629,1749.65
18956.95,3383.622,1749.667
18960.81,3380.583,1749.757
18964.84,3377.583,1749.726
18968.75,3374.567,1749.602
18972.77,3371.526,1749.615
18976.67,3368.47,1749.786
18980.52,3365.429,1749.564
18984.21,3362.424,1749.818
18988.35,3359.385,1749.651
18991.98,3356.339,1749.65
18995.91,3353.337,1749.758
18999.53,3350.254,1749.561
19003.17,3347.238,1749.74
19007.05,3344.193,1749.529
19010.32,3341.157,1749.47
19013.71,3338.118,1749.604
19017.52,3335.093,1749.686
19021.27,3332.041,1749.666
19024.77,3329.019,1749.494
19028.27,3325.986,1749.479
19031.45,3322.976,1749.467
19034.94,3319.919,1749.717
19038.27,3316.914,1749.44
19041.73,3313.84,1749.3
19045.11,3310.82,1749.613
19048.06,3307.816,1749.447
19051.28,3304.768,1749.81
19054.55,3301.766,1749.513
19057.83,3298.761,1749.923
19060.7,3295.681,1749.8
19064.05,3292.673,1749.648
19067.0,3289.593,1749.596
19069.95,3286.566,1749.355
19073.1,3283.54,1749.303
19075.88,3280.489,1749.272
19079.15,3277.463,1749.354
19082.08,3274.419,1749.598
19084.85,3271.4,1749.939
19087.85,3268.328,1749.589
19090.48,3265.316,1749.679
19093.44,3262.313,1749.661
19096.25,3259.257,1749.609
19098.91,3256.231,1749.817
19101.45,3253.229,1749.59
19104.36,3250.192,1749.7
19106.99,3247.187,1749.548
19109.52,3244.136,1749.65
19112.08,3241.133,1749.637
19114.79,3238.111,1749.555
19117.31,3235.096,1749.475
19119.76,3232.032,1749.686
19122.33,3228.989,1749.139
19124.64,3225.967,1749.455
19127.36,3222.923,1749.482
19129.7,3219.914,1749.497
19132.08,3216.897,1749.592
19134.54,3213.864,1749.757
19136.74,3210.855,1749.524
19139.25,3207.8,1749.675
19141.37,3204.756,1749.613
19143.7,3201.752,1749.837
19145.85,3198.706,1749.652
19148.13,3195.688,1749.568
19150.43,3192.665,1749.901
19152.52,3189.646,1749.589
19154.6,3186.628,1749.397
19156.64,3183.627,1749.413
19158.84,3180.587,1749.805
19160.88,3177.571,1749.699
19162.78,3174.552,1749.372
19164.93,3171.482,1749.603
19166.96,3168.478,1749.472
19168.8,3165.45,1749.647
19170.85,3162.446,1749.66
19172.61,3159.428,1749.537
19174.58,3156.418,1749.456
19176.52,3153.366,1749.363
19178.38,3150.31,1749.471
19180.24,3147.212,1749.654
19181.96,3144.185,1749.495
19183.75,3141.115,1749.68
19185.55,3138.069,1749.512
19187.2,3135.063,1749.952
19189.0,3132.031,1749.553
19190.65,3129.031,1749.589
19192.32,3126.004,1749.585
19193.78,3122.979,1749.732
19195.42,3119.972,1749.66
19196.93,3116.96,1749.613
19198.49,3113.952,1749.46
19200.12,3110.935,1749.342
19201.82,3107.928,1749.539
19203.23,3104.854,1749.422
19204.74,3101.82,1749.541
19206.24,3098.809,1749.371
19207.76,3095.753,1749.29
19209.33,3092.701,1749.733
19210.67,3089.599,1749.629
19212.12,3086.55,1749.835
19213.68,3083.505,1749.557
19214.94,3080.477,1749.581
19216.4,3077.45,1749.484
19217.72,3074.388,1749.682
19218.91,3071.32,1749.647
19220.4,3068.292,1749.637
19221.47,3065.273,1749.922
19223.0,3062.232,1749.747
19224.12,3059.225,1749.263
19225.39,3056.171,1749.717
19226.55,3053.133,1749.593
19227.91,3050.073,1749.82
19229.05,3047.064,1749.364
19230.27,3044.059,1749.341
19231.47,3041.025,1749.771
19232.62,3037.943,1749.454
19233.6,3034.883,1750.039
19234.75,3031.878,1749.441
19235.88,3028.82,1749.781
19237.06,3025.781,1749.337
19238.04,3022.765,1749.637
19239.09,3019.732,1749.877
19240.16,3016.706,1750.024
19241.17,3013.702,1749.361
19242.17,3010.666,1749.763
19243.27,3007.626,1749.923
19244.12,3004.561,1749.573
19245.13,3001.536,1749.634
19245.31,3001.131,1749.787
